time (s)	energy (uJ)	charge (mC)	voltage (mV)	crossing#mod 255
644.512737	32.403435	0.009103	3.559469	103
645.590541	30.687162	0.009109	3.368711	104
646.590347	32.209866	0.009095	3.541481	105
647.666956	30.773918	0.009085	3.387437	106
648.667315	33.751980	0.009105	3.706832	107
649.743173	31.961241	0.009106	3.509718	108
650.745616	34.552120	0.009091	3.800586	109
651.817429	39.528324	0.009098	4.344516	110
652.823478	38.492931	0.009100	4.229827	111
653.893916	31.833496	0.009116	3.492041	112
654.901479	36.379456	0.009098	3.998490	113
655.972402	32.524548	0.009097	3.575282	114
656.975468	36.770798	0.009108	4.037362	115
658.055516	36.198368	0.009106	3.975032	116
659.048693	35.430511	0.009117	3.886022	117
660.128106	32.693722	0.009099	3.593101	118
661.126059	33.496033	0.009106	3.678475	119
662.204772	40.389324	0.009098	4.439541	120
663.200336	35.350601	0.009103	3.883543	121
664.279330	33.952240	0.009098	3.731964	122
665.280857	36.685684	0.009095	4.033401	123
666.354954	36.518265	0.009096	4.014893	124
667.362385	55.642551	0.009083	6.126307	125
668.424517	33.408035	0.009101	3.670927	126
669.447567	40.086910	0.009081	4.414308	127
670.495998	35.334141	0.009107	3.879808	128
671.523886	37.255905	0.009142	4.075389	129
672.569513	36.007160	0.009083	3.964398	130
673.603654	38.058067	0.009128	4.169168	131
674.645675	36.351013	0.009100	3.994807	132
675.674671	35.915413	0.009106	3.944317	133
676.725101	36.733128	0.009107	4.033575	134
677.752580	39.848495	0.009102	4.378154	135
678.808591	36.746971	0.009096	4.039910	136
679.824941	40.399303	0.009100	4.439432	137
680.885926	36.245552	0.009121	3.973847	138
681.895992	39.855488	0.009098	4.380748	139
682.967738	35.814449	0.009105	3.933485	140
683.969210	39.490349	0.009099	4.339865	141
685.044304	37.607868	0.009090	4.137310	142
686.045354	40.011070	0.009084	4.404378	143
687.122981	38.316422	0.009112	4.205194	144
688.121928	40.476818	0.009083	4.456330	145
689.199922	38.913513	0.009111	4.271194	146
690.198081	42.060978	0.009096	4.623994	147
691.272441	36.879742	0.009082	4.060945	148
692.274835	40.824905	0.009115	4.478729	149
693.352835	39.720921	0.009097	4.366586	150
694.353278	42.833908	0.009098	4.708114	151
695.429319	40.481792	0.009097	4.449840	152
696.430205	42.528664	0.009122	4.662246	153
697.504258	42.058109	0.009094	4.625027	154
698.507803	42.119926	0.009099	4.629325	155
699.577129	40.594021	0.009099	4.461325	156
700.587357	41.883366	0.009098	4.603433	157
701.652921	42.391380	0.009093	4.661776	158
702.667762	42.795040	0.009148	4.678072	159
703.725040	43.970253	0.009111	4.826213	160
704.748131	43.331936	0.009091	4.766657	161
705.810301	52.024803	0.009093	5.721552	162
706.828420	44.018391	0.009123	4.824757	163
707.870446	42.939247	0.009123	4.706575	164
708.907774	45.737041	0.009146	5.000545	165
709.948265	43.024059	0.009096	4.729830	166
710.980838	45.134159	0.009094	4.962911	167
712.029020	40.508198	0.009119	4.442403	168
713.053318	46.712509	0.009109	5.128218	169
714.108849	45.139336	0.009104	4.958102	170
715.124913	48.097466	0.009107	5.281095	171
716.190389	43.341728	0.009096	4.764902	172
717.200362	48.977699	0.009071	5.399312	173
718.268832	44.304161	0.009105	4.866073	174
719.274466	47.998898	0.009099	5.275323	175
720.348604	45.840714	0.009095	5.040136	176
721.350352	48.367260	0.009103	5.313225	177
722.425417	43.352470	0.009116	4.755454	178
723.425676	48.607174	0.009098	5.342728	179
724.501705	45.733860	0.009103	5.024157	180
725.501794	48.899979	0.009095	5.376389	181
726.582160	49.632999	0.009092	5.458854	182
727.580238	49.935123	0.009101	5.486478	183
728.654948	46.469185	0.009093	5.110525	184
729.656849	51.200935	0.009106	5.622823	185
730.731572	46.994011	0.009092	5.168455	186
731.731775	50.009468	0.009101	5.495128	187
732.810147	48.844666	0.009095	5.370532	188
733.809119	50.866962	0.009101	5.589107	189
734.886364	49.596302	0.009109	5.444993	190
735.886385	52.504852	0.009111	5.762844	191
736.964383	51.029922	0.009093	5.611777	192
737.963466	53.116486	0.009099	5.837823	193
739.039197	50.938366	0.009092	5.602604	194
740.041508	53.132999	0.009091	5.844449	195
741.113232	51.208954	0.009095	5.630297	196
742.119768	51.781357	0.009094	5.694263	197
743.185631	50.920334	0.009095	5.598689	198
744.201349	55.136791	0.009103	6.057253	199
745.258687	51.262215	0.009107	5.628611	200
746.280253	53.331467	0.009095	5.863816	201
747.330747	53.142628	0.009108	5.834604	202
748.360809	55.112167	0.009118	6.044003	203
749.404634	51.713062	0.009109	5.677104	204
750.438581	55.425190	0.009081	6.103251	205
751.486695	57.015385	0.009083	6.277378	206
752.515373	55.402611	0.009116	6.077769	207
753.559372	53.906212	0.009114	5.914577	208
754.589663	55.528481	0.009074	6.119576	209
755.643689	58.228832	0.009074	6.417190	210
756.666666	59.743813	0.009093	6.570603	211
757.719224	56.514946	0.009096	6.213332	212
758.739329	58.439148	0.009096	6.424869	213
759.797559	56.203003	0.009094	6.180018	214
760.815446	59.366463	0.009093	6.528982	215
761.876331	55.698326	0.009091	6.126936	216
762.890201	61.013748	0.009101	6.704070	217
763.953626	55.529655	0.009116	6.091701	218
764.966663	61.970253	0.009093	6.815440	219
766.031616	56.568108	0.009092	6.221698	220
767.041510	59.652061	0.009092	6.561222	221
768.108006	57.163734	0.009111	6.274146	222
769.117920	64.297104	0.009136	7.038144	223
770.185451	58.097061	0.009108	6.378732	224
771.195784	61.391426	0.009097	6.748617	225
772.260070	58.403000	0.009114	6.408326	226
773.273585	61.881920	0.009093	6.805486	227
774.337302	61.562149	0.009101	6.764030	228
775.352331	62.153240	0.009122	6.813497	229
776.412156	61.063896	0.009093	6.715694	230
777.430946	64.056938	0.009116	7.026537	231
778.484888	61.343506	0.009092	6.746912	232
779.512351	61.656036	0.009104	6.772500	233
780.558961	61.507191	0.009114	6.748811	234
781.588072	61.325855	0.009089	6.747325	235
782.634755	63.694813	0.009119	6.984478	236
783.668929	81.851173	0.009084	9.010139	237
784.710243	60.725266	0.009095	6.676617	238
785.745912	67.396469	0.009103	7.404143	239
786.788548	62.991127	0.009085	6.933384	240
787.820367	67.373787	0.009058	7.438099	241
788.868330	64.933411	0.009092	7.142196	242
789.894956	67.103302	0.009112	7.364377	243
790.946500	64.873032	0.009089	7.137801	244
791.970391	66.470978	0.009093	7.310247	245
793.026844	66.959831	0.009080	7.374590	246
794.043692	69.627640	0.009092	7.657922	247
795.104747	65.095062	0.009093	7.158985	248
796.118736	69.938248	0.009089	7.694867	249
797.182875	66.167076	0.009092	7.277798	250
798.196482	74.087296	0.009091	8.149850	251
799.263048	69.762703	0.009091	7.673734	252
800.271185	70.384529	0.009102	7.732583	253
801.337847	66.584419	0.009115	7.304776	254
802.347112	73.329117	0.009063	8.091334	255
803.415175	69.221214	0.009073	7.629024	0
804.425192	75.517639	0.009083	8.314229	1
805.493249	70.155159	0.009110	7.700921	2
806.503252	77.073326	0.009104	8.465581	3
807.567652	65.853165	0.009091	7.243743	4
808.577746	72.802742	0.009094	8.005283	5
809.647285	72.427704	0.009090	7.968229	6
810.655285	74.705627	0.009072	8.234857	7
811.720576	69.296501	0.009096	7.618257	8
812.733138	75.599731	0.009102	8.305940	9
813.798247	74.446609	0.009098	8.182620	10
814.811371	76.915703	0.009109	8.444068	11
815.871860	68.380058	0.009157	7.467493	12
816.889869	76.912437	0.009142	8.413315	13
817.946779	73.872658	0.009103	8.115511	14
818.969102	75.857010	0.009089	8.345713	15
820.022328	76.288681	0.009091	8.391740	16
821.048650	78.630806	0.009088	8.652081	17
822.098294	78.509621	0.009091	8.635714	18
823.128489	81.547096	0.009088	8.973165	19
824.174180	74.921227	0.009087	8.245251	20
825.206907	82.037323	0.009105	9.009755	21
826.248075	77.065292	0.009109	8.460465	22
827.285117	83.727509	0.009084	9.217395	23
828.325890	77.061066	0.009088	8.479479	24
829.358714	81.607834	0.009082	8.985281	25
830.402901	77.960922	0.009081	8.585033	26
831.434476	83.168060	0.009098	9.141243	27
832.482537	80.192497	0.009093	8.818727	28
833.510105	84.658028	0.009088	9.315771	29
834.560722	80.195717	0.009104	8.809318	30
835.586074	84.379265	0.009086	9.286609	31
836.640028	82.848076	0.009098	9.106428	32
837.662581	85.740974	0.009090	9.432787	33
838.717138	82.592476	0.009111	9.065351	34
839.737155	84.490646	0.009107	9.277330	35
840.796541	86.009903	0.009080	9.472717	36
841.815548	89.877640	0.009086	9.891383	37
842.873470	82.543694	0.009094	9.076896	38
843.892071	89.650703	0.009100	9.851591	39
844.949781	87.999077	0.009081	9.690149	40
845.968549	89.175804	0.009088	9.812267	41
847.023609	85.618011	0.009095	9.414008	42
848.046499	88.552856	0.009085	9.747430	43
849.099999	85.731766	0.009088	9.433567	44
850.126423	92.052498	0.009062	10.158565	45
851.177762	90.626877	0.009083	9.977760	46
852.203031	90.972664	0.009087	10.011581	47
853.250945	86.270500	0.009105	9.475475	48
854.282477	92.913078	0.009056	10.259817	49
855.328304	86.654015	0.009093	9.529398	50
856.361005	95.638741	0.009079	10.534116	51
857.404925	90.954521	0.009088	10.008570	52
858.439444	97.488052	0.009096	10.718077	53
859.480293	91.023643	0.009083	10.020858	54
860.514634	96.061752	0.009099	10.557090	55
861.558245	91.421516	0.009102	10.044227	56
862.590597	96.685181	0.009084	10.643289	57
863.636238	89.691826	0.009035	9.927197	58
864.666530	96.371284	0.009086	10.606312	59
865.715115	88.349083	0.009110	9.697753	60
866.741487	99.212242	0.009091	10.913731	61
867.793797	94.750183	0.009100	10.412401	62
868.817434	95.936722	0.009079	10.566834	63
869.873958	93.078537	0.009100	10.228828	64
870.893254	100.432808	0.009082	11.059016	65
871.952487	98.710342	0.009087	10.862915	66
872.967799	98.531250	0.009102	10.825279	67
874.029113	92.319336	0.009060	10.189756	68
875.044403	98.653328	0.009066	10.881251	69
876.107083	98.695755	0.009086	10.862857	70
877.120023	96.411003	0.009080	10.618430	71
878.185798	102.906158	0.009088	11.323454	72
879.200011	104.404381	0.009088	11.488571	73
880.260698	100.612297	0.009082	11.078478	74
881.276721	102.763153	0.009103	11.289343	75
882.338920	104.498909	0.009082	11.506076	76
883.355624	104.345749	0.009081	11.490120	77
884.414234	102.121994	0.009076	11.251453	78
885.431404	102.392097	0.009083	11.272869	79
886.489677	102.196007	0.009089	11.244117	80
887.507917	101.212181	0.009085	11.140172	81
888.565364	99.431770	0.009085	10.945126	82
889.588843	106.825424	0.009098	11.741183	83
890.641624	102.614006	0.009081	11.300200	84
891.666071	104.646248	0.009084	11.520119	85
892.716280	102.056046	0.009110	11.202849	86
893.745626	108.189178	0.009078	11.917855	87
894.793486	105.198326	0.009105	11.554449	88
895.824010	107.412643	0.009091	11.814678	89
896.868730	105.862495	0.009083	11.654658	90
897.904250	110.951530	0.009081	12.218415	91
898.945023	103.985931	0.009062	11.475449	92
899.980042	109.837830	0.009101	12.068550	93
901.023073	106.984360	0.009099	11.757439	94
902.056279	109.093071	0.009075	12.020688	95
903.099905	106.062897	0.009087	11.671767	96
904.134482	110.761215	0.009094	12.179473	97
905.177329	107.651924	0.009119	11.805621	98
906.210530	114.053986	0.009100	12.533806	99
907.255485	108.320824	0.009065	11.949482	100
908.285999	111.017845	0.009079	12.228045	101
909.333587	116.002792	0.009086	12.767342	102
910.362646	111.191154	0.009106	12.210460	103
911.413959	112.140228	0.009082	12.347620	104
912.438991	113.848549	0.009086	12.530453	105
913.490687	112.111382	0.009095	12.326065	106
914.515261	113.048866	0.009075	12.456968	107
915.566949	111.570618	0.009084	12.282755	108
916.592930	111.938225	0.009078	12.331347	109
917.643513	109.013519	0.009090	11.993278	110
918.669702	111.922295	0.009095	12.305313	111
919.721124	115.716118	0.009083	12.740213	112
920.747650	113.005890	0.009074	12.453231	113
921.797448	113.974144	0.009108	12.513174	114
922.825815	117.655464	0.009081	12.955692	115
923.873663	117.098518	0.009092	12.879256	116
924.903969	118.699570	0.009093	13.053277	117
925.951234	115.457024	0.009103	12.683125	118
926.981985	118.160141	0.009071	13.026227	119
928.027317	113.484474	0.009083	12.494439	120
929.062208	121.072235	0.009094	13.313847	121
930.103018	115.206680	0.009083	12.683506	122
931.138731	121.520630	0.009085	13.376007	123
932.180603	115.044266	0.009086	12.662265	124
933.215808	118.894295	0.009098	13.068310	125
934.259247	119.233604	0.009096	13.108887	126
935.292173	121.099129	0.009063	13.361337	127
936.337240	126.977348	0.009082	13.981372	128
937.371226	122.019707	0.009083	13.433288	129
938.414247	119.265297	0.009064	13.158629	130
939.445976	121.503960	0.009064	13.405480	131
940.493831	121.035690	0.009091	13.314123	132
941.522139	121.808052	0.009080	13.414267	133
942.571652	120.344933	0.009086	13.245769	134
943.597799	121.946892	0.009077	13.434041	135
944.648660	121.068008	0.009077	13.338275	136
945.674555	126.833412	0.009098	13.941416	137
946.727917	121.392120	0.009074	13.377549	138
947.753428	121.790794	0.009065	13.434998	139
948.805808	121.599312	0.009054	13.430142	140
949.829846	122.166183	0.009099	13.426516	141
950.886967	121.925995	0.009077	13.432395	142
951.905143	122.340714	0.009106	13.434875	143
952.962384	121.959984	0.009077	13.436230	144
953.983294	121.893440	0.009073	13.435418	145
955.039082	122.440605	0.009092	13.467024	146
956.060363	122.270859	0.009100	13.436213	147
957.114502	122.306076	0.009104	13.434836	148
958.138346	121.935898	0.009077	13.433681	149
959.191840	121.689728	0.009058	13.433764	150
960.217805	121.915718	0.009074	13.435538	151
961.268413	121.834869	0.009071	13.430864	152
962.295396	122.908821	0.009149	13.434751	153
963.342865	121.784691	0.009082	13.409194	154
964.375056	121.974266	0.009078	13.436412	155
965.424802	122.315948	0.009071	13.484689	156
